Thorlabs Shack-Hartmann Wavefront Sensor

Model                  ,       WFS150-7AR
Serial Number          ,       M00451204

Date MM-DD-YYYY        ,       06-28-2023
Time HH:MM:SS          ,       15:47:32


*** CAMERA ***
Camera Type            ,       Thorlabs DCU224M
Camera SN              ,       4103134643
Resolution X           ,       768
Resolution Y           ,       768
Exposure Time [ms]     ,      12.489
Master Gain            ,       4.102
Averages               ,       3
Average Type           ,       Normal


*** BEAM ***
Beam Center X [mm]     ,      -0.441
Beam Center Y [mm]     ,       0.926
Beam Diameter X [mm]   ,       4.395
Beam Diameter Y [mm]   ,       2.382


*** PUPIL ***
Circular               ,       0
Use Beam Centroid      ,       1
Use Beam Dia           ,       0
Wavefront Calc In Pupil,       0
Pupil Diameter X [mm]  ,       4.150
Pupil Diameter Y [mm]  ,       4.150
Pupil Center X [mm]    ,      -0.441
Pupil Center Y [mm]    ,       0.926


*** ZERNIKE FIT ***
Zernike Orders Auto    ,       0
Zernike Orders         ,       4
Zernike Modes          ,       15
Unit                   ,       µm
Index  Order  Frequency  Coefficient
   1,     0,     0,       -7.278
   2,     1,    -1,       18.809
   3,     1,     1,       -2.757
   4,     2,    -2,        1.889
   5,     2,     0,       -6.464
   6,     2,     2,       -3.766
   7,     3,    -3,        0.781
   8,     3,    -1,       -2.567
   9,     3,     1,       -0.800
  10,     3,     3,        0.241
  11,     4,    -4,        0.483
  12,     4,    -2,        0.204
  13,     4,     0,        0.774
  14,     4,     2,       -0.090
  15,     4,     4,        0.541

Fit Error Mean [arcmin]  ,   6.975e-10
Fit Error StdDev [arcmin],   7.298e-03


*** RMS WAVEFRONT VARIATIONS ***
Unit                   ,       µm
Order  Variation
   0,      7.278
   1,     19.010
   2,      7.716
   3,      2.811
   4,      1.084


*** FOURIER NOTATION ***
Fourier Order          ,       2
Fourier M              ,      10.400
Fourier J0             ,       4.285
Fourier J45            ,      -2.149


*** OPTOMETRIC NOTATION ***
Optometric Sphere [dpt],      15.193
Optometric Cyl. [dpt]  ,      -9.587
Optometric Axis [deg]  ,     166.680

Radius of Curvature[mm],      96.154


*** WAVEFRONT ***
Reference              ,       Internal Reference
Unit                   ,       µm
Wavelength [nm]        ,        633.000
Type                   ,       Difference
Calculation Area       ,       entire area
PV                     ,      17.596
RMS                    ,       3.894
RMS weighted           ,       3.701
Spots X                ,       21
Spots Y                ,       21
y / x [mm],    -1.500,    -1.350,    -1.200,    -1.050,    -0.900,    -0.750,    -0.600,    -0.450,    -0.300,    -0.150,     0.000,     0.150,     0.300,     0.450,     0.600,     0.750,     0.900,     1.050,     1.200,     1.350,     1.500,
     1.500,     1.187,     2.940,     4.501,     5.914,     7.136,     8.097,     8.764,     9.137,     9.233,     9.083,     8.805,     8.211,     7.605,     7.031,     6.537,     6.095,     5.567,     4.956,     4.284,     3.646,     3.251,
     1.350,    -1.035,     0.975,     2.782,     4.375,     5.734,     6.808,     7.593,     8.087,     8.280,     8.226,     8.058,     7.562,     7.070,     6.632,     6.270,     5.903,     5.405,     4.756,     4.008,     3.310,     2.796,
     1.200,    -3.199,    -0.966,     1.064,     2.845,     4.312,     5.435,     6.275,     6.857,     7.162,     7.225,     7.141,     6.775,     6.431,     6.177,     5.989,     5.726,     5.292,     4.688,     3.975,     3.301,     2.777,
     1.050,    -4.791,    -2.599,    -0.555,     1.279,     2.809,     3.995,     4.890,     5.552,     5.965,     6.125,     6.126,     5.878,     5.720,     5.701,     5.666,     5.496,     5.085,     4.493,     3.803,     3.180,     2.569,
     0.900,    -6.847,    -4.540,    -2.361,    -0.434,     1.186,     2.471,     3.446,     4.205,     4.726,     4.983,     5.097,     4.978,     4.974,     5.099,     5.145,     4.992,     4.535,     3.845,     3.017,     2.219,     1.282,
     0.750,    -8.159,    -6.070,    -3.983,    -2.017,    -0.292,     1.094,     2.127,     2.937,     3.510,     3.856,     4.100,     4.101,     4.243,     4.485,     4.593,     4.396,     3.825,     2.978,     2.005,     0.997,    -0.437,
     0.600,    -8.363,    -6.666,    -4.933,    -3.192,    -1.524,    -0.090,     0.972,     1.776,     2.357,     2.774,     3.115,     3.280,     3.564,     3.903,     4.027,     3.699,     2.922,     1.850,     0.607,    -0.932,    -3.107,
     0.450,    -7.902,    -6.600,    -5.259,    -3.848,    -2.414,    -1.104,    -0.080,     0.688,     1.255,     1.718,     2.161,     2.508,     2.929,     3.291,     3.278,     2.626,     1.407,    -0.220,    -2.162,    -4.456,    -7.104,
     0.300,    -7.512,    -6.529,    -5.490,    -4.380,    -3.210,    -2.070,    -1.113,    -0.373,     0.222,     0.761,     1.301,     1.771,     2.306,     2.726,     2.712,     1.992,     0.712,    -0.867,    -2.678,    -4.774,    -7.191,
     0.150,    -6.960,    -6.281,    -5.512,    -4.607,    -3.661,    -2.725,    -1.898,    -1.190,    -0.558,     0.005,     0.581,     1.090,     1.610,     1.974,     1.866,     1.125,    -0.066,    -1.467,    -3.076,    -4.951,    -7.160,
     0.000,    -6.443,    -5.952,    -5.347,    -4.614,    -3.834,    -3.064,    -2.324,    -1.633,    -1.029,    -0.521,     0.000,     0.545,     1.024,     1.291,     1.123,     0.483,    -0.502,    -1.701,    -3.105,    -4.795,    -6.858,
    -0.150,    -5.914,    -5.626,    -5.124,    -4.504,    -3.832,    -3.140,    -2.392,    -1.662,    -1.121,    -0.714,    -0.353,     0.122,     0.485,     0.667,     0.575,     0.084,    -0.753,    -1.820,    -3.100,    -4.672,       NaN,
    -0.300,    -5.438,    -5.280,    -4.842,    -4.204,    -3.495,    -2.743,    -2.031,    -1.453,    -1.035,    -0.770,    -0.544,    -0.201,     0.136,     0.447,     0.603,     0.440,    -0.064,    -0.882,    -1.960,       NaN,       NaN,
    -0.450,    -4.793,    -4.664,    -4.190,    -3.457,    -2.744,    -2.173,    -1.670,    -1.234,    -0.927,    -0.819,    -0.752,    -0.394,     0.208,     0.916,     1.751,     2.628,     3.031,     2.723,     1.903,       NaN,       NaN,
    -0.600,    -4.103,    -3.915,    -3.377,    -2.663,    -2.128,    -1.815,    -1.460,    -1.119,    -0.880,    -0.826,    -0.880,    -0.632,     0.227,     1.550,     3.066,     4.473,     5.298,     5.379,       NaN,       NaN,       NaN,
    -0.750,    -3.818,    -3.513,    -2.876,    -2.153,    -1.735,    -1.536,    -1.303,    -1.084,    -0.908,    -0.783,    -0.876,    -0.997,    -0.794,    -0.321,     0.526,     1.620,     2.475,       NaN,       NaN,       NaN,       NaN,
    -0.900,       NaN,    -3.242,    -2.383,    -1.671,    -1.397,    -1.271,    -1.125,    -0.960,    -0.858,    -0.780,    -0.794,    -0.922,    -0.890,    -0.972,    -1.006,       NaN,       NaN,       NaN,       NaN,       NaN,       NaN,
    -1.050,       NaN,       NaN,    -1.708,    -1.279,    -1.169,    -1.117,    -1.025,    -0.954,    -0.891,    -0.795,    -0.721,    -0.792,    -1.041,    -1.616,       NaN,       NaN,       NaN,       NaN,       NaN,       NaN,       NaN,
    -1.200,       NaN,       NaN,       NaN,       NaN,       NaN,       NaN,       NaN,       NaN,       NaN,       NaN,       NaN,       NaN,       NaN,       NaN,       NaN,       NaN,       NaN,       NaN,       NaN,       NaN,       NaN,
    -1.350,       NaN,       NaN,       NaN,       NaN,       NaN,       NaN,       NaN,       NaN,       NaN,       NaN,       NaN,       NaN,       NaN,       NaN,       NaN,       NaN,       NaN,       NaN,       NaN,       NaN,       NaN,
    -1.500,       NaN,       NaN,       NaN,       NaN,       NaN,       NaN,       NaN,       NaN,       NaN,       NaN,       NaN,       NaN,       NaN,       NaN,       NaN,       NaN,       NaN,       NaN,       NaN,       NaN,       NaN,
